#Wavelength cs_C Dcs_C (angstrom cm2 cm2)
2275    0       0
2225    0       0
2175    0       0
2125    0       0
2075    0       0
2025    0       0
1975    0       0
1925    0       0
1875    0       0
1825    0       0
1775    0       0
1725    0       0
1675    0       0
1625    0       0
1575    0       0
1525    0       0
1475    0       0
1425    0       0
1375    0       0
1325    0       0
1275    0       0
1225    0       0
1215.7  0       0
1175    0       0
1125    0       0
1075    0       0
1031.9  0       0
1025.7  0       0
1025    0       0
999.99  0       0
999.96  0       0
999.93  0       0
999.9   0       0
999.87  0       0
999.84  0       0
999.81  0       0
999.78  0       0
999.75  0       0
999.72  0       0
999.69  0       0
999.66  0       0
999.63  0       0
999.6   0       0
999.57  0       0
999.54  0       0
999.51  0       0
999.48  0       0
999.45  0       0
999.42  0       0
999.39  0       0
999.36  0       0
999.33  0       0
999.3   0       0
999.27  0       0
999.24  0       0
999.21  0       0
999.18  0       0
999.15  0       0
999.12  0       0
999.09  0       0
999.06  0       0
999.03  0       0
999     0       0
998.97  0       0
998.94  0       0
998.91  0       0
998.88  0       0
998.85  0       0
998.82  0       0
998.79  0       0
998.76  0       0
998.73  0       0
998.7   0       0
998.67  0       0
998.64  0       0
998.61  0       0
998.58  0       0
998.55  0       0
998.52  0       0
998.49  0       0
998.46  0       0
998.43  0       0
998.4   0       0
998.37  0       0
998.34  0       0
998.31  0       0
998.28  0       0
998.25  0       0
998.22  0       0
998.19  0       0
998.16  0       0
998.13  0       0
998.1   0       0
998.07  0       0
998.04  0       0
998.01  0       0
997.98  0       0
997.95  0       0
997.92  0       0
997.89  0       0
997.86  0       0
997.83  0       0
997.8   0       0
997.77  0       0
997.74  0       0
997.71  0       0
997.68  0       0
997.65  0       0
997.62  0       0
997.59  0       0
997.56  0       0
997.53  0       0
997.5   0       0
997.47  0       0
997.44  0       0
997.41  0       0
997.38  0       0
997.35  0       0
997.32  0       0
997.29  0       0
997.26  0       0
997.23  0       0
997.2   0       0
997.17  0       0
997.14  0       0
997.11  0       0
997.08  0       0
997.05  0       0
997.02  0       0
996.99  0       0
996.96  0       0
996.93  0       0
996.9   0       0
996.87  0       0
996.84  0       0
996.81  0       0
996.78  0       0
996.75  0       0
996.72  0       0
996.69  0       0
996.66  0       0
996.63  0       0
996.6   0       0
996.57  0       0
996.54  0       0
996.51  0       0
996.48  0       0
996.45  0       0
996.42  0       0
996.39  0       0
996.36  0       0
996.33  0       0
996.3   0       0
996.27  0       0
996.24  0       0
996.21  0       0
996.18  0       0
996.15  0       0
996.12  0       0
996.09  0       0
996.06  0       0
996.03  0       0
996     0       0
995.97  0       0
995.94  0       0
995.91  0       0
995.88  0       0
995.85  0       0
995.82  0       0
995.79  0       0
995.76  0       0
995.73  0       0
995.7   0       0
995.67  0       0
995.64  0       0
995.61  0       0
995.58  0       0
995.55  0       0
995.52  0       0
995.49  0       0
995.46  0       0
995.43  0       0
995.4   0       0
995.37  0       0
995.34  0       0
995.31  0       0
995.28  0       0
995.25  0       0
995.22  0       0
995.19  0       0
995.16  0       0
995.13  0       0
995.1   0       0
995.07  0       0
995.04  0       0
995.01  0       0
994.98  0       0
994.95  0       0
994.92  0       0
994.89  0       0
994.86  0       0
994.83  0       0
994.8   0       0
994.77  0       0
994.74  0       0
994.71  0       0
994.68  0       0
994.65  0       0
994.62  0       0
994.59  0       0
994.56  0       0
994.53  0       0
994.5   0       0
994.47  0       0
994.44  0       0
994.41  0       0
994.38  0       0
994.35  0       0
994.32  0       0
994.29  0       0
994.26  0       0
994.23  0       0
994.2   0       0
994.17  0       0
994.14  0       0
994.11  0       0
994.08  0       0
994.05  0       0
994.02  0       0
993.99  0       0
993.96  0       0
993.93  0       0
993.9   0       0
993.87  0       0
993.84  0       0
993.81  0       0
993.78  0       0
993.75  0       0
993.72  0       0
993.69  0       0
993.66  0       0
993.63  0       0
993.6   0       0
993.57  0       0
993.54  0       0
993.51  0       0
993.48  0       0
993.45  0       0
993.42  0       0
993.39  0       0
993.36  0       0
993.33  0       0
993.3   0       0
993.27  0       0
993.24  0       0
993.21  0       0
993.18  0       0
993.15  0       0
993.12  0       0
993.09  0       0
993.06  0       0
993.03  0       0
993     0       0
992.97  0       0
992.94  0       0
992.91  0       0
992.88  0       0
992.85  0       0
992.82  0       0
992.79  0       0
992.76  0       0
992.73  0       0
992.7   0       0
992.67  0       0
992.64  0       0
992.61  0       0
992.58  0       0
992.55  0       0
992.52  0       0
992.49  0       0
992.46  0       0
992.43  0       0
992.4   0       0
992.37  0       0
992.34  0       0
992.31  0       0
992.28  0       0
992.25  0       0
992.22  0       0
992.19  0       0
992.16  0       0
992.13  0       0
992.1   0       0
992.07  0       0
992.04  0       0
992.01  0       0
991.98  0       0
991.95  0       0
991.92  0       0
991.89  0       0
991.86  0       0
991.83  0       0
991.8   0       0
991.77  0       0
991.74  0       0
991.71  0       0
991.68  0       0
991.65  0       0
991.62  0       0
991.59  0       0
991.56  0       0
991.53  0       0
991.5   0       0
991.47  0       0
991.44  0       0
991.41  0       0
991.38  0       0
991.35  0       0
991.32  0       0
991.29  0       0
991.26  0       0
991.23  0       0
991.2   0       0
991.17  0       0
991.14  0       0
991.11  0       0
991.08  0       0
991.05  0       0
991.02  0       0
990.99  0       0
990.96  0       0
990.93  0       0
990.9   0       0
990.87  0       0
990.84  0       0
990.81  0       0
990.78  0       0
990.75  0       0
990.72  0       0
990.69  0       0
990.66  0       0
990.63  0       0
990.6   0       0
990.57  0       0
990.54  0       0
990.51  0       0
990.48  0       0
990.45  0       0
990.42  0       0
990.39  0       0
990.36  0       0
990.33  0       0
990.3   0       0
990.27  0       0
990.24  0       0
990.21  0       0
990.18  0       0
990.15  0       0
990.12  0       0
990.09  0       0
990.06  0       0
990.03  0       0
990     0       0
989.97  0       0
989.94  0       0
989.91  0       0
989.88  0       0
989.85  0       0
989.82  0       0
989.79  0       0
989.76  0       0
989.73  0       0
989.7   0       0
989.67  0       0
989.64  0       0
989.61  0       0
989.58  0       0
989.55  0       0
989.52  0       0
989.49  0       0
989.46  0       0
989.43  0       0
989.4   0       0
989.37  0       0
989.34  0       0
989.31  0       0
989.28  0       0
989.25  0       0
989.22  0       0
989.19  0       0
989.16  0       0
989.13  0       0
989.1   0       0
989.07  0       0
989.04  0       0
989.01  0       0
988.98  0       0
988.95  0       0
988.92  0       0
988.89  0       0
988.86  0       0
988.83  0       0
988.8   0       0
988.77  0       0
988.74  0       0
988.71  0       0
988.68  0       0
988.65  0       0
988.62  0       0
988.59  0       0
988.56  0       0
988.53  0       0
988.5   0       0
988.47  0       0
988.44  0       0
988.41  0       0
988.38  0       0
988.35  0       0
988.32  0       0
988.29  0       0
988.26  0       0
988.23  0       0
988.2   0       0
988.17  0       0
988.14  0       0
988.11  0       0
988.08  0       0
988.05  0       0
988.02  0       0
987.99  0       0
987.96  0       0
987.93  0       0
987.9   0       0
987.87  0       0
987.84  0       0
987.81  0       0
987.78  0       0
987.75  0       0
987.72  0       0
987.69  0       0
987.66  0       0
987.63  0       0
987.6   0       0
987.57  0       0
987.54  0       0
987.51  0       0
987.48  0       0
987.45  0       0
987.42  0       0
987.39  0       0
987.36  0       0
987.33  0       0
987.3   0       0
987.27  0       0
987.24  0       0
987.21  0       0
987.18  0       0
987.15  0       0
987.12  0       0
987.09  0       0
987.06  0       0
987.03  0       0
987     0       0
986.97  0       0
986.94  0       0
986.91  0       0
986.88  0       0
986.85  0       0
986.82  0       0
986.79  0       0
986.76  0       0
986.73  0       0
986.7   0       0
986.67  0       0
986.64  0       0
986.61  0       0
986.58  0       0
986.55  0       0
986.52  0       0
986.49  0       0
986.46  0       0
986.43  0       0
986.4   0       0
986.37  0       0
986.34  0       0
986.31  0       0
986.28  0       0
986.25  0       0
986.22  0       0
986.19  0       0
986.16  0       0
986.13  0       0
986.1   0       0
986.07  0       0
986.04  0       0
986.01  0       0
985.98  0       0
985.95  0       0
985.92  0       0
985.89  0       0
985.86  0       0
985.83  0       0
985.8   0       0
985.77  0       0
985.74  0       0
985.71  0       0
985.68  0       0
985.65  0       0
985.62  0       0
985.59  0       0
985.56  0       0
985.53  0       0
985.5   0       0
985.47  0       0
985.44  0       0
985.41  0       0
985.38  0       0
985.35  0       0
985.32  0       0
985.29  0       0
985.26  0       0
985.23  0       0
985.2   0       0
985.17  0       0
985.14  0       0
985.11  0       0
985.08  0       0
985.05  0       0
985.02  0       0
984.99  0       0
984.96  0       0
984.93  0       0
984.9   0       0
984.87  0       0
984.84  0       0
984.81  0       0
984.78  0       0
984.75  0       0
984.72  0       0
984.69  0       0
984.66  0       0
984.63  0       0
984.6   0       0
984.57  0       0
984.54  0       0
984.51  0       0
984.48  0       0
984.45  0       0
984.42  0       0
984.39  0       0
984.36  0       0
984.33  0       0
984.3   0       0
984.27  0       0
984.24  0       0
984.21  0       0
984.18  0       0
984.15  0       0
984.12  0       0
984.09  0       0
984.06  0       0
984.03  0       0
984     0       0
983.97  0       0
983.94  0       0
983.91  0       0
983.88  0       0
983.85  0       0
983.82  0       0
983.79  0       0
983.76  0       0
983.73  0       0
983.7   0       0
983.67  0       0
983.64  0       0
983.61  0       0
983.58  0       0
983.55  0       0
983.52  0       0
983.49  0       0
983.46  0       0
983.43  0       0
983.4   0       0
983.37  0       0
983.34  0       0
983.31  0       0
983.28  0       0
983.25  0       0
983.22  0       0
983.19  0       0
983.16  0       0
983.13  0       0
983.1   0       0
983.07  0       0
983.04  0       0
983.01  0       0
982.98  0       0
982.95  0       0
982.92  0       0
982.89  0       0
982.86  0       0
982.83  0       0
982.8   0       0
982.77  0       0
982.74  0       0
982.71  0       0
982.68  0       0
982.65  0       0
982.62  0       0
982.59  0       0
982.56  0       0
982.53  0       0
982.5   0       0
982.47  0       0
982.44  0       0
982.41  0       0
982.38  0       0
982.35  0       0
982.32  0       0
982.29  0       0
982.26  0       0
982.23  0       0
982.2   0       0
982.17  0       0
982.14  0       0
982.11  0       0
982.08  0       0
982.05  0       0
982.02  0       0
981.99  0       0
981.96  0       0
981.93  0       0
981.9   0       0
981.87  0       0
981.84  0       0
981.81  0       0
981.78  0       0
981.75  0       0
981.72  0       0
981.69  0       0
981.66  0       0
981.63  0       0
981.6   0       0
981.57  0       0
981.54  0       0
981.51  0       0
981.48  0       0
981.45  0       0
981.42  0       0
981.39  0       0
981.36  0       0
981.33  0       0
981.3   0       0
981.27  0       0
981.24  0       0
981.21  0       0
981.18  0       0
981.15  0       0
981.12  0       0
981.09  0       0
981.06  0       0
981.03  0       0
981     0       0
980.97  0       0
980.94  0       0
980.91  0       0
980.88  0       0
980.85  0       0
980.82  0       0
980.79  0       0
980.76  0       0
980.73  0       0
980.7   0       0
980.67  0       0
980.64  0       0
980.61  0       0
980.58  0       0
980.55  0       0
980.52  0       0
980.49  0       0
980.46  0       0
980.43  0       0
980.4   0       0
980.37  0       0
980.34  0       0
980.31  0       0
980.28  0       0
980.25  0       0
980.22  0       0
980.19  0       0
980.16  0       0
980.13  0       0
980.1   0       0
980.07  0       0
980.04  0       0
980.01  0       0
979.98  0       0
979.95  0       0
979.92  0       0
979.89  0       0
979.86  0       0
979.83  0       0
979.8   0       0
979.77  0       0
979.74  0       0
979.71  0       0
979.68  0       0
979.65  0       0
979.62  0       0
979.59  0       0
979.56  0       0
979.53  0       0
979.5   0       0
979.47  0       0
979.44  0       0
979.41  0       0
979.38  0       0
979.35  0       0
979.32  0       0
979.29  0       0
979.26  0       0
979.23  0       0
979.2   0       0
979.17  0       0
979.14  0       0
979.11  0       0
979.08  0       0
979.05  0       0
979.02  0       0
978.99  0       0
978.96  0       0
978.93  0       0
978.9   0       0
978.87  0       0
978.84  0       0
978.81  0       0
978.78  0       0
978.75  0       0
978.72  0       0
978.69  0       0
978.66  0       0
978.63  0       0
978.6   0       0
978.57  0       0
978.54  0       0
978.51  0       0
978.48  0       0
978.45  0       0
978.42  0       0
978.39  0       0
978.36  0       0
978.33  0       0
978.3   0       0
978.27  0       0
978.24  0       0
978.21  0       0
978.18  0       0
978.15  0       0
978.12  0       0
978.09  0       0
978.06  0       0
978.03  0       0
978     0       0
977.97  0       0
977.94  0       0
977.91  0       0
977.88  0       0
977.85  0       0
977.82  0       0
977.79  0       0
977.76  0       0
977.73  0       0
977.7   0       0
977.67  0       0
977.64  0       0
977.61  0       0
977.58  0       0
977.55  0       0
977.52  0       0
977.49  0       0
977.46  0       0
977.43  0       0
977.4   0       0
977.37  0       0
977.34  0       0
977.31  0       0
977.28  0       0
977.25  0       0
977.22  0       0
977.19  0       0
977.16  0       0
977.13  0       0
977.1   0       0
977.07  0       0
977.04  0       0
977.01  74      0
976.98  97      0
976.95  2       0
976.92  4       0
976.89  7       0
976.86  9       0
976.83  1       0
976.8   3       0
976.77  6       0
976.74  8       0
976.71          0
976.68  2       0
976.65  5       0
976.62  7       0
976.59  9       0
976.56          0
976.53          0
976.5           0
976.47          0
976.44          0
976.41  0       0
976.38          0
976.35          0
976.32          0
976.29          0
976.26          0
976.23          0
976.2           0
976.17          0
976.14          0
976.11          0
976.08  0       0
976.05          0
976.02          0
975.99          0
975.96          0
975.93          0
975.9           0
975.87  0       0
975.84          0
975.81          0
975.78          0
975.75          0
975.72          0
975.69          0
975.66          0
975.63          0
975.6           0
975.57          0
975.54  0       0
975.51          0
975.48          0
975.45          0
975.42          0
975.39          0
975.36          0
975.33  0       0
975.3           0
975.27          0
975.24          0
975.21          0
975.18          0
975.15          0
975.12          0
975.09          0
975.06          0
975.03          0
975     0       0
974.97  0.0456840
974.94  0.0457680
974.91  0.0458510
974.88  0.0459350
974.85  0.0460190
974.82  0.0461030
974.79          0
974.76  0.0462710
974.73  0.0463540
974.7   0.0464380
974.67  0.0465220
974.64  0.0466060
974.61  0.04669 0
974.58          0
974.55  0.0468570
974.52  0.0469410
974.49  0.0470250
974.46  0.0471090
974.43  0.0471930
974.4   0.0472760
974.37  0.04736 0
974.34  0.0474440
974.31  0.0475280
974.28  0.0476120
974.25  0.0476960
974.22  0.0477790
974.19  0.0478630
974.16  0.0479470
974.13  0.0480310
974.1   0.0481150
974.07  0.0481980
974.04  0.0482820
974.01  0.0483660
973.98  0.04845 0
973.95  0.0485340
973.92          0
973.89  0.0487010
973.86  0.0487850
973.83  0.0488690
973.8   0.0489530
973.77  0.0490370
973.74  0.04912 0
973.71          0
973.68  0.0492880
973.65  0.0493720
973.62  0.0494560
973.59  0.04954 0
973.56  0.0496230
973.53          0
973.5           0
973.47          0
973.44          0
973.41          0
973.38          0
973.35  0       0
973.32          0
973.29          0
973.26          0
973.23          0
973.2           0
973.17          0
973.14          0
973.11          0
973.08          0
973.05          0
973.02          0
972.99          0
972.96  0       0
972.93          0
972.9           0
972.87          0
972.84          0
972.81          0
972.78          0
972.75          0
972.72  0       0
972.69          0
972.66          0
972.63          0
972.6           0
972.57          0
972.54          0
972.51          0
972.48          0
972.45          0
972.42          0
972.39          0
972.36          0
972.33  0       0
972.3           0
972.27          0
972.24          0
972.21          0
972.18          0
972.15          0
972.12          0
972.09          0
972.06          0
972.03          0
972             0
971.97          0
971.94  0       0
971.91          0
971.88          0
971.85          0
971.82          0
971.79          0
971.76          0
971.73          0
971.7   0       0
971.67          0
971.64          0
971.61          0
971.58          0
971.55          0
971.52          0
971.49          0
971.46          0
971.43          0
971.4           0
971.37          0
971.34          0
971.31  0       0
971.28          0
971.25          0
971.22          0
971.19          0
971.16          0
971.13          0
971.1           0
971.07  0       0
971.04          0
971.01          0
970.98          0
970.95          0
970.92  0       0
970.89          0
970.86          0
970.83          0
970.8           0
970.77          0
970.74          0
970.71          0
970.68  0       0
970.65          0
970.62          0
970.59          0
970.56          0
970.53          0
970.5           0
970.47          0
970.44          0
970.41          0
970.38          0
970.35          0
970.32          0
970.29  0       0
970.26          0
970.23          0
970.2           0
970.17          0
970.14          0
970.11          0
970.08          0
970.05  0       0
970.02          0
969.99          0
969.96          0
969.93          0
969.9           0
969.87          0
969.84          0
969.81          0
969.78          0
969.75          0
969.72          0
969.69          0
969.66  0       0
969.63          0
969.6           0
969.57          0
969.54          0
969.51          0
969.48          0
969.45          0
969.42          0
969.39          0
969.36          0
969.33          0
969.3           0
969.27  0       0
969.24          0
969.21          0
969.18          0
969.15          0
969.12          0
969.09          0
969.06          0
969.03  0       0
969             0
968.97          0
968.94          0
968.91          0
968.88          0
968.85          0
968.82          0
968.79          0
968.76          0
968.73          0
968.7           0
968.67          0
968.64  0       0
968.61          0
968.58          0
968.55          0
968.52          0
968.49          0
968.46          0
968.43          0
968.4   0       0
968.37          0
968.34          0
968.31          0
968.28          0
968.25  0       0
968.22          0
968.19          0
968.16          0
968.13          0
968.1           0
968.07          0
968.04          0
968.01  0       0
967.98          0
967.95          0
967.92          0
967.89          0
967.86          0
967.83          0
967.8           0
967.77          0
967.74          0
967.71          0
967.68          0
967.65          0
967.62  0       0
967.59          0
967.56          0
967.53          0
967.5           0
967.47          0
967.44          0
967.41          0
967.38  0       0
967.35          0
967.32          0
967.29          0
967.26          0
967.23          0
967.2           0
967.17          0
967.14          0
967.11          0
967.08          0
967.05          0
967.02          0
966.99  0       0
966.96          0
966.93          0
966.9           0
966.87          0
966.84          0
966.81          0
966.78          0
966.75          0
966.72          0
966.69          0
966.66          0
966.63          0
966.6   0       0
966.57          0
966.54          0
966.51          0
966.48          0
966.45          0
966.42          0
966.39          0
966.36  0       0
966.33          0
966.3           0
966.27          0
966.24          0
966.21          0
966.18          0
966.15          0
966.12          0
966.09          0
966.06          0
966.03          0
966             0
965.97  0       0
965.94          0
965.91          0
965.88          0
965.85          0
965.82          0
965.79          0
965.76          0
965.73  0       0
965.7           0
965.67          0
965.64          0
965.61          0
965.58          0
965.55          0
965.52          0
965.49          0
965.46          0
965.43          0
965.4           0
965.37          0
965.34  0       0
965.31          0
965.28          0
965.25          0
965.22          0
965.19          0
965.16          0
965.13          0
965.1           0
965.07          0
965.04          0
965.01          0
964.98          0
964.95  0       0
964.92          0
964.89          0
964.86          0
964.83          0
964.8           0
964.77          0
964.74          0
964.71  0       0
964.68          0
964.65          0
964.62          0
964.59          0
964.56          0
964.53          0
964.5           0
964.47          0
964.44          0
964.41          0
964.38          0
964.35          0
964.32  0       0
964.29          0
964.26          0
964.23          0
964.2           0
964.17          0
964.14          0
964.11          0
964.08  0       0
964.05          0
964.02          0
963.99          0
963.96          0
963.93  0       0
963.9           0
963.87          0
963.84          0
963.81          0
963.78          0
963.75          0
963.72          0
963.69  0       0
963.66          0
963.63          0
963.6           0
963.57          0
963.54          0
963.51          0
963.48          0
963.45          0
963.42          0
963.39          0
963.36          0
963.33          0
963.3   0       0
963.27          0
963.24          0
963.21          0
963.18          0
963.15          0
963.12          0
963.09          0
963.06  0       0
963.03          0
963             0
962.97          0
962.94          0
962.91          0
962.88          0
962.85          0
962.82          0
962.79          0
962.76          0
962.73          0
962.7           0
962.67  0       0
962.64          0
962.61          0
962.58          0
962.55          0
962.52          0
962.49          0
962.46          0
962.43          0
962.4           0
962.37          0
962.34          0
962.31          0
962.28  0       0
962.25          0
962.22          0
962.19          0
962.16          0
962.13          0
962.1           0
962.07          0
962.04  0       0
962.01          0
961.98          0
961.95          0
961.92          0
961.89          0
961.86          0
961.83          0
961.8           0
961.77          0
961.74          0
961.71          0
961.68          0
961.65  0       0
961.62          0
961.59          0
961.56          0
961.53          0
961.5           0
961.47          0
961.44          0
961.41  0       0
961.38          0
961.35          0
961.32          0
961.29          0
961.26  0       0
961.23          0
961.2           0
961.17          0
961.14          0
961.11          0
961.08          0
961.05          0
961.02  0       0
960.99          0
960.96          0
960.93          0
960.9           0
960.87          0
960.84          0
960.81          0
960.78          0
960.75          0
960.72          0
960.69          0
960.66          0
960.63  0       0
960.6           0
960.57          0
960.54          0
960.51          0
960.48          0
960.45          0
960.42          0
960.39  0       0
960.36          0
960.33          0
960.3           0
960.27          0
960.24          0
960.21          0
960.18          0
960.15          0
960.12          0
960.09          0
960.06          0
960.03          0
960     0       0
959.97          0
959.94          0
959.91          0
959.88          0
959.85          0
959.82          0
959.79          0
959.76          0
959.73          0
959.7           0
959.67          0
959.64          0
959.61  0       0
959.58          0
959.55          0
959.52          0
959.49          0
959.46          0
959.43          0
959.4           0
959.37  0       0
959.34          0
959.31          0
959.28          0
959.25          0
959.22          0
959.19          0
959.16          0
959.13          0
959.1           0
959.07          0
959.04          0
959.01          0
958.98  0       0
958.95          0
958.92          0
958.89          0
958.86          0
958.83          0
958.8           0
958.77          0
958.74  0       0
958.71          0
958.68          0
958.65          0
958.62          0
958.59  0       0
958.56          0
958.53          0
958.5           0
958.47          0
958.44          0
958.41          0
958.38          0
958.35  0       0
958.32          0
958.29          0
958.26          0
958.23          0
958.2           0
958.17          0
958.14          0
958.11          0
958.08          0
958.05          0
958.02          0
957.99          0
957.96  0       0
957.93          0
957.9           0
957.87          0
957.84          0
957.81          0
957.78          0
957.75          0
957.72  0       0
957.69          0
957.66          0
957.63          0
957.6           0
957.57          0
957.54          0
957.51          0
957.48          0
957.45          0
957.42          0
957.39          0
957.36          0
957.33  0       0
957.3           0
957.27          0
957.24          0
957.21          0
957.18          0
957.15          0
957.12          0
957.09          0
957.06          0
957.03          0
957             0
956.97          0
956.94  0       0
956.91          0
956.88          0
956.85          0
956.82          0
956.79          0
956.76          0
956.73          0
956.7   0       0
956.67          0
956.64          0
956.61          0
956.58          0
956.55          0
956.52          0
956.49          0
956.46          0
956.43          0
956.4           0
956.37          0
956.34          0
956.31  0       0
956.28          0
956.25          0
956.22          0
956.19          0
956.16          0
956.13          0
956.1           0
956.07  0       0
956.04          0
956.01          0
955.98          0
955.95          0
955.92  0       0
955.89          0
955.86          0
955.83          0
955.8           0
955.77          0
955.74          0
955.71          0
955.68  0       0
955.65          0
955.62          0
955.59          0
955.56          0
955.53          0
955.5   0       0
955.47  0       0
955.44  0       0
955.41  0       0
955.38  0       0
955.35  0       0
955.32  0       0
955.29  0       0
955.26  0       0
955.23  0       0
955.2   0       0
955.17  0       0
955.14  0       0
955.11  0       0
955.08  0       0
955.05  0       0
955.02  0       0
954.99  0       0
954.96  0       0
954.93  0       0
954.9   0       0
954.87  0       0
954.84  0       0
954.81  0       0
954.78  0       0
954.75  0       0
954.72  0       0
954.69  0       0
954.66  0       0
954.63  0       0
954.6   0       0
954.57  0       0
954.54  0       0
954.51  0       0
954.48  0       0
954.45  0       0
954.42  0       0
954.39  0       0
954.36  0       0
954.33  0       0
954.3   0       0
954.27  0       0
954.24  0       0
954.21  0       0
954.18  0       0
954.15  0       0
954.12  0       0
954.09  0       0
954.06  0       0
954.03  0       0
954     0       0
953.97  0       0
953.94  0       0
953.91  0       0
953.88  0       0
953.85  0       0
953.82  0       0
953.79  0       0
953.76  0       0
953.73  0       0
953.7   0       0
953.67  0       0
953.64  0       0
953.61  0       0
953.58  0       0
953.55  0       0
953.52  0       0
953.49  0       0
953.46  0       0
953.43  0       0
953.4   0       0
953.37  0       0
953.34  0       0
953.31  0       0
953.28  0       0
953.25  0       0
953.22  0       0
953.19  0       0
953.16  0       0
953.13  0       0
953.1   0       0
953.07  0       0
953.04  0       0
953.01  0       0
952.98  0       0
952.95  0       0
952.92  0       0
952.89  0       0
952.86  0       0
952.83  0       0
952.8   0       0
952.77  0       0
952.74  0       0
952.71  0       0
952.68  0       0
952.65  0       0
952.62  0       0
952.59  0       0
952.56  0       0
952.53  0       0
952.5   0       0
952.47  0       0
952.44  0       0
952.41  0       0
952.38  0       0
952.35  0       0
952.32  0       0
952.29  0       0
952.26  0       0
952.23  0       0
952.2   0       0
952.17  0       0
952.14  0       0
952.11  0       0
952.08  0       0
952.05  0       0
952.02  0       0
951.99  0       0
951.96  0       0
951.93  0       0
951.9   0       0
951.87  0       0
951.84  0       0
951.81  0       0
951.78  0       0
951.75  0       0
951.72  0       0
951.69  0       0
951.66  0       0
951.63  0       0
951.6   0       0
951.57  0       0
951.54  0       0
951.51  0       0
951.48  0       0
951.45  0       0
951.42  0       0
951.39  0       0
951.36  0       0
951.33  0       0
951.3   0       0
951.27  0       0
951.24  0       0
951.21  0       0
951.18  0       0
951.15  0       0
951.12  0       0
951.09  0       0
951.06  0       0
951.03  0       0
951     0       0
950.97  0       0
950.94  0       0
950.91  0       0
950.88  0       0
950.85  0       0
950.82  0       0
950.79  0       0
950.76  0       0
950.73  0       0
950.7   0       0
950.67  0       0
950.64  0       0
950.61  0       0
950.58  0       0
950.55  0       0
950.52  0       0
950.49  0       0
950.46  0       0
950.43  0       0
950.4   0       0
950.37  0       0
950.34  0       0
950.31  0       0
950.28  0       0
950.25  0       0
950.22  0       0
950.19  0       0
950.16  0       0
950.13  0       0
950.1   0       0
950.07  0       0
950.04  0       0
950.01  0       0
949.98  0       0
949.95  0       0
949.92  0       0
949.89  0       0
949.86  0       0
949.83  0       0
949.8   0       0
949.77  0       0
949.74  0       0
949.71  0       0
949.68  0       0
949.65  0       0
949.62  0       0
949.59  0       0
949.56  0       0
949.53  0       0
949.5   0       0
949.47  0       0
949.44  0       0
949.41  0       0
949.38  0       0
949.35  0       0
949.32  0       0
949.29  0       0
949.26  0       0
949.23  0       0
949.2   0       0
949.17  0       0
949.14  0       0
949.11  0       0
949.08  0       0
949.05  0       0
949.02  0       0
948.99  0       0
948.96  0       0
948.93  0       0
948.9   0       0
948.87  0       0
948.84  0       0
948.81  0       0
948.78  0       0
948.75  0       0
948.72  0       0
948.69  0       0
948.66  0       0
948.63  0       0
948.6   0       0
948.57  0       0
948.54  0       0
948.51  0       0
948.48  0       0
948.45  0       0
948.42  0       0
948.39  0       0
948.36  0       0
948.33  0       0
948.3   0       0
948.27  0       0
948.24  0       0
948.21  0       0
948.18  0       0
948.15  0       0
948.12  0       0
948.09  0       0
948.06  0       0
948.03  0       0
948     0       0
947.97  0       0
947.94  0       0
947.91  0       0
947.88  0       0
947.85  0       0
947.82  0       0
947.79  0       0
947.76  0       0
947.73  0       0
947.7   0       0
947.67  0       0
947.64  0       0
947.61  0       0
947.58  0       0
947.55  0       0
947.52  0       0
947.49  0       0
947.46  0       0
947.43  0       0
947.4   0       0
947.37  0       0
947.34  0       0
947.31  0       0
947.28  0       0
947.25  0       0
947.22  0       0
947.19  0       0
947.16  0       0
947.13  0       0
947.1   0       0
947.07  0       0
947.04  0       0
947.01  0       0
946.98  0       0
946.95  0       0
946.92  0       0
946.89  0       0
946.86  0       0
946.83  0       0
946.8   0       0
946.77  0       0
946.74  0       0
946.71  0       0
946.68  0       0
946.65  0       0
946.62  0       0
946.59  0       0
946.56  0       0
946.53  0       0
946.5   0       0
946.47  0       0
946.44  0       0
946.41  0       0
946.38  0       0
946.35  0       0
946.32  0       0
946.29  0       0
946.26  0       0
946.23  0       0
946.2   0       0
946.17  0       0
946.14  0       0
946.11  0       0
946.08  0       0
946.05  0       0
946.02  0       0
945.99  0       0
945.96  0       0
945.93  0       0
945.9   0       0
945.87  0       0
945.84  0       0
945.81  0       0
945.78  0       0
945.75  0       0
945.72  0       0
945.69  0       0
945.66  0       0
945.63  0       0
945.6   0       0
945.57  0       0
945.54  0       0
945.51  0       0
945.48  0       0
945.45  0       0
945.42  0       0
945.39  0       0
945.36  0       0
945.33  0       0
945.3   0       0
945.27  0       0
945.24  0       0
945.21  0       0
945.18  0       0
945.15  0       0
945.12  0       0
945.09  0       0
945.06  0       0
945.03  0       0
945     0       0
944.97  0       0
944.94  0       0
944.91  0       0
944.88  0       0
944.85  0       0
944.82  0       0
944.79  0       0
944.76  0       0
944.73  0       0
944.7   0       0
944.67  0       0
944.64  0       0
944.61  0       0
944.58  0       0
944.55  0       0
944.52  0       0
944.49  0       0
944.46  0       0
944.43  0       0
944.4   0       0
944.37  0       0
944.34  0       0
944.31  0       0
944.28  0       0
944.25  0       0
944.22  0       0
944.19  0       0
944.16  0       0
944.13  0       0
944.1   0       0
944.07  0       0
944.04  0       0
944.01  0       0
943.98  0       0
943.95  0       0
943.92  0       0
943.89  0       0
943.86  0       0
943.83  0       0
943.8   0       0
943.77  0       0
943.74  0       0
943.71  0       0
943.68  0       0
943.65  0       0
943.62  0       0
943.59  0       0
943.56  0       0
943.53  0       0
943.5   0       0
943.47  0       0
943.44  0       0
943.41  0       0
943.38  0       0
943.35  0       0
943.32  0       0
943.29  0       0
943.26  0       0
943.23  0       0
943.2   0       0
943.17  0       0
943.14  0       0
943.11  0       0
943.08  0       0
943.05  0       0
943.02  0       0
942.99  0       0
942.96  0       0
942.93  0       0
942.9   0       0
942.87  0       0
942.84  0       0
942.81  0       0
942.78  0       0
942.75  0       0
942.72  0       0
942.69  0       0
942.66  0       0
942.63  0       0
942.6   0       0
942.57  0       0
942.54  0       0
942.51  0       0
942.48  0       0
942.45  0       0
942.42  0       0
942.39  0       0
942.36  0       0
942.33  0       0
942.3   0       0
942.27  0       0
942.24  0       0
942.21  0       0
942.18  0       0
942.15  0       0
942.12  0       0
942.09  0       0
942.06  0       0
942.03  0       0
942     0       0
941.97  0       0
941.94  0       0
941.91  0       0
941.88  0       0
941.85  0       0
941.82  0       0
941.79  0       0
941.76  0       0
941.73  0       0
941.7   0       0
941.67  0       0
941.64  0       0
941.61  0       0
941.58  0       0
941.55  0       0
941.52  0       0
941.49  0       0
941.46  0       0
941.43  0       0
941.4   0       0
941.37  0       0
941.34  0       0
941.31  0       0
941.28  0       0
941.25  0       0
941.22  0       0
941.19  0       0
941.16  0       0
941.13  0       0
941.1   0       0
941.07  0       0
941.04  0       0
941.01  0       0
940.98  0       0
940.95  0       0
940.92  0       0
940.89  0       0
940.86  0       0
940.83  0       0
940.8   0       0
940.77  0       0
940.74  0       0
940.71  0       0
940.68  0       0
940.65  0       0
940.62  0       0
940.59  0       0
940.56  0       0
940.53  0       0
940.5   0       0
940.47  0       0
940.44  0       0
940.41  0       0
940.38  0       0
940.35  0       0
940.32  0       0
940.29  0       0
940.26  0       0
940.23  0       0
940.2   0       0
940.17  0       0
940.14  0       0
940.11  0       0
940.08  0       0
940.05  0       0
940.02  0       0
939.99  0       0
939.96  0       0
939.93  0       0
939.9   0       0
939.87  0       0
939.84  0       0
939.81  0       0
939.78  0       0
939.75  0       0
939.72  0       0
939.69  0       0
939.66  0       0
939.63  0       0
939.6   0       0
939.57  0       0
939.54  0       0
939.51  0       0
939.48  0       0
939.45  0       0
939.42  0       0
939.39  0       0
939.36  0       0
939.33  0       0
939.3   0       0
939.27  0       0
939.24  0       0
939.21  0       0
939.18  0       0
939.15  0       0
939.12  0       0
939.09  0       0
939.06  0       0
939.03  0       0
939     0       0
938.97  0       0
938.94  0       0
938.91  0       0
938.88  0       0
938.85  0       0
938.82  0       0
938.79  0       0
938.76  0       0
938.73  0       0
938.7   0       0
938.67  0       0
938.64  0       0
938.61  0       0
938.58  0       0
938.55  0       0
938.52  0       0
938.49  0       0
938.46  0       0
938.43  0       0
938.4   0       0
938.37  0       0
938.34  0       0
938.31  0       0
938.28  0       0
938.25  0       0
938.22  0       0
938.19  0       0
938.16  0       0
938.13  0       0
938.1   0       0
938.07  0       0
938.04  0       0
938.01  0       0
937.98  0       0
937.95  0       0
937.92  0       0
937.89  0       0
937.86  0       0
937.83  0       0
937.8   0       0
937.77  0       0
937.74  0       0
937.71  0       0
937.68  0       0
937.65  0       0
937.62  0       0
937.59  0       0
937.56  0       0
937.53  0       0
937.5   0       0
937.47  0       0
937.44  0       0
937.41  0       0
937.38  0       0
937.35  0       0
937.32  0       0
937.29  0       0
937.26  0       0
937.23  0       0
937.2   0       0
937.17  0       0
937.14  0       0
937.11  0       0
937.08  0       0
937.05  0       0
937.02  0       0
936.99  0       0
936.96  0       0
936.93  0       0
936.9   0       0
936.87  0       0
936.84  0       0
936.81  0       0
936.78  0       0
936.75  0       0
936.72  0       0
936.69  0       0
936.66  0       0
936.63  0       0
936.6   0       0
936.57  0       0
936.54  0       0
936.51  0       0
936.48  0       0
936.45  0       0
936.42  0       0
936.39  0       0
936.36  0       0
936.33  0       0
936.3   0       0
936.27  0       0
936.24  0       0
936.21  0       0
936.18  0       0
936.15  0       0
936.12  0       0
936.09  0       0
936.06  0       0
936.03  0       0
936     0       0
935.97  0       0
935.94  0       0
935.91  0       0
935.88  0       0
935.85  0       0
935.82  0       0
935.79  0       0
935.76  0       0
935.73  0       0
935.7   0       0
935.67  0       0
935.64  0       0
935.61  0       0
935.58  0       0
935.55  0       0
935.52  0       0
935.49  0       0
935.46  0       0
935.43  0       0
935.4   0       0
935.37  0       0
935.34  0       0
935.31  0       0
935.28  0       0
935.25  0       0
935.22  0       0
935.19  0       0
935.16  0       0
935.13  0       0
935.1   0       0
935.07  0       0
935.04  0       0
935.01  0       0
934.98  0       0
934.95  0       0
934.92  0       0
934.89  0       0
934.86  0       0
934.83  0       0
934.8   0       0
934.77  0       0
934.74  0       0
934.71  0       0
934.68  0       0
934.65  0       0
934.62  0       0
934.59  0       0
934.56  0       0
934.53  0       0
934.5   0       0
934.47  0       0
934.44  0       0
934.41  0       0
934.38  0       0
934.35  0       0
934.32  0       0
934.29  0       0
934.26  0       0
934.23  0       0
934.2   0       0
934.17  0       0
934.14  0       0
934.11  0       0
934.08  0       0
934.05  0       0
934.02  0       0
933.99  0       0
933.96  0       0
933.93  0       0
933.9   0       0
933.87  0       0
933.84  0       0
933.81  0       0
933.78  0       0
933.75  0       0
933.72  0       0
933.69  0       0
933.66  0       0
933.63  0       0
933.6   0       0
933.57  0       0
933.54  0       0
933.51  0       0
933.48  0       0
933.45  0       0
933.42  0       0
933.39  0       0
933.36  0       0
933.33  0       0
933.3   0       0
933.27  0       0
933.24  0       0
933.21  0       0
933.18  0       0
933.15  0       0
933.12  0       0
933.09  0       0
933.06  0       0
933.03  0       0
933     0       0
932.97  0       0
932.94  0       0
932.91  0       0
932.88  0       0
932.85  0       0
932.82  0       0
932.79  0       0
932.76  0       0
932.73  0       0
932.7   0       0
932.67  0       0
932.64  0       0
932.61  0       0
932.58  0       0
932.55  0       0
932.52  0       0
932.49  0       0
932.46  0       0
932.43  0       0
932.4   0       0
932.37  0       0
932.34  0       0
932.31  0       0
932.28  0       0
932.25  0       0
932.22  0       0
932.19  0       0
932.16  0       0
932.13  0       0
932.1   0       0
932.07  0       0
932.04  0       0
932.01  0       0
931.98  0       0
931.95  0       0
931.92  0       0
931.89  0       0
931.86  0       0
931.83  0       0
931.8   0       0
931.77  0       0
931.74  0       0
931.71  0       0
931.68  0       0
931.65  0       0
931.62  0       0
931.59  0       0
931.56  0       0
931.53  0       0
931.5   0       0
931.47  0       0
931.44  0       0
931.41  0       0
931.38  0       0
931.35  0       0
931.32  0       0
931.29  0       0
931.26  0       0
931.23  0       0
931.2   0       0
931.17  0       0
931.14  0       0
931.11  0       0
931.08  0       0
931.05  0       0
931.02  0       0
930.99  0       0
930.96  0       0
930.93  0       0
930.9   0       0
930.87  0       0
930.84  0       0
930.81  0       0
930.78  0       0
930.75  0       0
930.72  0       0
930.69  0       0
930.66  0       0
930.63  0       0
930.6   0       0
930.57  0       0
930.54  0       0
930.51  0       0
930.48  0       0
930.45  0       0
930.42  0       0
930.39  0       0
930.36  0       0
930.33  0       0
930.3   0       0
930.27  0       0
930.24  0       0
930.21  0       0
930.18  0       0
930.15  0       0
930.12  0       0
930.09  0       0
930.06  0       0
930.03  0       0
930     0       0
929.97  0       0
929.94  0       0
929.91  0       0
929.88  0       0
929.85  0       0
929.82  0       0
929.79  0       0
929.76  0       0
929.73  0       0
929.7   0       0
929.67  0       0
929.64  0       0
929.61  0       0
929.58  0       0
929.55  0       0
929.52  0       0
929.49  0       0
929.46  0       0
929.43  0       0
929.4   0       0
929.37  0       0
929.34  0       0
929.31  0       0
929.28  0       0
929.25  0       0
929.22  0       0
929.19  0       0
929.16  0       0
929.13  0       0
929.1   0       0
929.07  0       0
929.04  0       0
929.01  0       0
928.98  0       0
928.95  0       0
928.92  0       0
928.89  0       0
928.86  0       0
928.83  0       0
928.8   0       0
928.77  0       0
928.74  0       0
928.71  0       0
928.68  0       0
928.65  0       0
928.62  0       0
928.59  0       0
928.56  0       0
928.53  0       0
928.5   0       0
928.47  0       0
928.44  0       0
928.41  0       0
928.38  0       0
928.35  0       0
928.32  0       0
928.29  0       0
928.26  0       0
928.23  0       0
928.2   0       0
928.17  0       0
928.14  0       0
928.11  0       0
928.08  0       0
928.05  0       0
928.02  0       0
927.99  0       0
927.96  0       0
927.93  0       0
927.9   0       0
927.87  0       0
927.84  0       0
927.81  0       0
927.78  0       0
927.75  0       0
927.72  0       0
927.69  0       0
927.66  0       0
927.63  0       0
927.6   0       0
927.57  0       0
927.54  0       0
927.51  0       0
927.48  0       0
927.45  0       0
927.42  0       0
927.39  0       0
927.36  0       0
927.33  0       0
927.3   0       0
927.27  0       0
927.24  0       0
927.21  0       0
927.18  0       0
927.15  0       0
927.12  0       0
927.09  0       0
927.06  0       0
927.03  0       0
927     0       0
926.97  0       0
926.94  0       0
926.91  0       0
926.88  0       0
926.85  0       0
926.82  0       0
926.79  0       0
926.76  0       0
926.73  0       0
926.7   0       0
926.67  0       0
926.64  0       0
926.61  0       0
926.58  0       0
926.55  0       0
926.52  0       0
926.49  0       0
926.46  0       0
926.43  0       0
926.4   0       0
926.37  0       0
926.34  0       0
926.31  0       0
926.28  0       0
926.25  0       0
926.22  0       0
926.19  0       0
926.16  0       0
926.13  0       0
926.1   0       0
926.07  0       0
926.04  0       0
926.01  0       0
925.98  0       0
925.95  0       0
925.92  0       0
925.89  0       0
925.86  0       0
925.83  0       0
925.8   0       0
925.77  0       0
925.74  0       0
925.71  0       0
925.68  0       0
925.65  0       0
925.62  0       0
925.59  0       0
925.56  0       0
925.53  0       0
925.5   0       0
925.47  0       0
925.44  0       0
925.41  0       0
925.38  0       0
925.35  0       0
925.32  0       0
925.29  0       0
925.26  0       0
925.23  0       0
925.2   0       0
925.17  0       0
925.14  0       0
925.11  0       0
925.08  0       0
925.05  0       0
925.02  0       0
924.99  0       0
924.96  0       0
924.93  0       0
924.9   0       0
924.87  0       0
924.84  0       0
924.81  0       0
924.78  0       0
924.75  0       0
924.72  0       0
924.69  0       0
924.66  0       0
924.63  0       0
924.6   0       0
924.57  0       0
924.54  0       0
924.51  0       0
924.48  0       0
924.45  0       0
924.42  0       0
924.39  0       0
924.36  0       0
924.33  0       0
924.3   0       0
924.27  0       0
924.24  0       0
924.21  0       0
924.18  0       0
924.15  0       0
924.12  0       0
924.09  0       0
924.06  0       0
924.03  0       0
924     0       0
923.97  0       0
923.94  0       0
923.91  0       0
923.88  0       0
923.85  0       0
923.82  0       0
923.79  0       0
923.76  0       0
923.73  0       0
923.7   0       0
923.67  0       0
923.64  0       0
923.61  0       0
923.58  0       0
923.55  0       0
923.52  0       0
923.49  0       0
923.46  0       0
923.43  0       0
923.4   0       0
923.37  0       0
923.34  0       0
923.31  0       0
923.28  0       0
923.25  0       0
923.22  0       0
923.19  0       0
923.16  0       0
923.13  0       0
923.1   0       0
923.07  0       0
923.04  0       0
923.01  0       0
922.98  0       0
922.95  0       0
922.92  0       0
922.89  0       0
922.86  0       0
922.83  0       0
922.8   0       0
922.77  0       0
922.74  0       0
922.71  0       0
922.68  0       0
922.65  0       0
922.62  0       0
922.59  0       0
922.56  0       0
922.53  0       0
922.5   0       0
922.47  0       0
922.44  0       0
922.41  0       0
922.38  0       0
922.35  0       0
922.32  0       0
922.29  0       0
922.26  0       0
922.23  0       0
922.2   0       0
922.17  0       0
922.14  0       0
922.11  0       0
922.08  0       0
922.05  0       0
922.02  0       0
921.99  0       0
921.96  0       0
921.93  0       0
921.9   0       0
921.87  0       0
921.84  0       0
921.81  0       0
921.78  0       0
921.75  0       0
921.72  0       0
921.69  0       0
921.66  0       0
921.63  0       0
921.6   0       0
921.57  0       0
921.54  0       0
921.51  0       0
921.48  0       0
921.45  0       0
921.42  0       0
921.39  0       0
921.36  0       0
921.33  0       0
921.3   0       0
921.27  0       0
921.24  0       0
921.21  0       0
921.18  0       0
921.15  0       0
921.12  0       0
921.09  0       0
921.06  0       0
921.03  0       0
921     0       0
920.97  0       0
920.94  0       0
920.91  0       0
920.88  0       0
920.85  0       0
920.82  0       0
920.79  0       0
920.76  0       0
920.73  0       0
920.7   0       0
920.67  0       0
920.64  0       0
920.61  0       0
920.58  0       0
920.55  0       0
920.52  0       0
920.49  0       0
920.46  0       0
920.43  0       0
920.4   0       0
920.37  0       0
920.34  0       0
920.31  0       0
920.28  0       0
920.25  0       0
920.22  0       0
920.19  0       0
920.16  0       0
920.13  0       0
920.1   0       0
920.07  0       0
920.04  0       0
920.01  0       0
919.98  0       0
919.95  0       0
919.92  0       0
919.89  0       0
919.86  0       0
919.83  0       0
919.8   0       0
919.77  0       0
919.74  0       0
919.71  0       0
919.68  0       0
919.65  0       0
919.62  0       0
919.59  0       0
919.56  0       0
919.53  0       0
919.5   0       0
919.47  0       0
919.44  0       0
919.41  0       0
919.38  0       0
919.35  0       0
919.32  0       0
919.29  0       0
919.26  0       0
919.23  0       0
919.2   0       0
919.17  0       0
919.14  0       0
919.11  0       0
919.08  0       0
919.05  0       0
919.02  0       0
918.99  0       0
918.96  0       0
918.93  0       0
918.9   0       0
918.87  0       0
918.84  0       0
918.81  0       0
918.78  0       0
918.75  0       0
918.72  0       0
918.69  0       0
918.66  0       0
918.63  0       0
918.6   0       0
918.57  0       0
918.54  0       0
918.51  0       0
918.48  0       0
918.45  0       0
918.42  0       0
918.39  0       0
918.36  0       0
918.33  0       0
918.3   0       0
918.27  0       0
918.24  0       0
918.21  0       0
918.18  0       0
918.15  0       0
918.12  0       0
918.09  0       0
918.06  0       0
918.03  0       0
918     0       0
917.97  0       0
917.94  0       0
917.91  0       0
917.88  0       0
917.85  0       0
917.82  0       0
917.79  0       0
917.76  0       0
917.73  0       0
917.7   0       0
917.67  0       0
917.64  0       0
917.61  0       0
917.58  0       0
917.55  0       0
917.52  0       0
917.49  0       0
917.46  0       0
917.43  0       0
917.4   0       0
917.37  0       0
917.34  0       0
917.31  0       0
917.28  0       0
917.25  0       0
917.22  0       0
917.19  0       0
917.16  0       0
917.13  0       0
917.1   0       0
917.07  0       0
917.04  0       0
917.01  0       0
916.98  0       0
916.95  0       0
916.92  0       0
916.89  0       0
916.86  0       0
916.83  0       0
916.8   0       0
916.77  0       0
916.74  0       0
916.71  0       0
916.68  0       0
916.65  0       0
916.62  0       0
916.59  0       0
916.56  0       0
916.53  0       0
916.5   0       0
916.47  0       0
916.44  0       0
916.41  0       0
916.38  0       0
916.35  0       0
916.32  0       0
916.29  0       0
916.26  0       0
916.23  0       0
916.2   0       0
916.17  0       0
916.14  0       0
916.11  0       0
916.08  0       0
916.05  0       0
916.02  0       0
915.99  0       0
915.96  0       0
915.93  0       0
915.9   0       0
915.87  0       0
915.84  0       0
915.81  0       0
915.78  0       0
915.75  0       0
915.72  0       0
915.69  0       0
915.66  0       0
915.63  0       0
915.6   0       0
915.57  0       0
915.54  0       0
915.51  0       0
915.48  0       0
915.45  0       0
915.42  0       0
915.39  0       0
915.36  0       0
915.33  0       0
915.3   0       0
915.27  0       0
915.24  0       0
915.21  0       0
915.18  0       0
915.15  0       0
915.12  0       0
915.09  0       0
915.06  0       0
915.03  0       0
915     0       0
914.97  0       0
914.94  0       0
914.91  0       0
914.88  0       0
914.85  0       0
914.82  0       0
914.79  0       0
914.76  0       0
914.73  0       0
914.7   0       0
914.67  0       0
914.64  0       0
914.61  0       0
914.58  0       0
914.55  0       0
914.52  0       0
914.49  0       0
914.46  0       0
914.43  0       0
914.4   0       0
914.37  0       0
914.34  0       0
914.31  0       0
914.28  0       0
914.25  0       0
914.22  0       0
914.19  0       0
914.16  0       0
914.13  0       0
914.1   0       0
914.07  0       0
914.04  0       0
914.01  0       0
913.98  0       0
913.95  0       0
913.92  0       0
913.89  0       0
913.86  0       0
913.83  0       0
913.8   0       0
913.77  0       0
913.74  0       0
913.71  0       0
913.68  0       0
913.65  0       0
913.62  0       0
913.59  0       0
913.56  0       0
913.53  0       0
913.5   0       0
913.47  0       0
913.44  0       0
913.41  0       0
913.38  0       0
913.35  0       0
913.32  0       0
913.29  0       0
913.26  0       0
913.23  0       0
913.2   0       0
913.17  0       0
913.14  0       0
913.11  0       0
913.08  0       0
913.05  0       0
913.02  0       0
912.99  0       0
912.96  0       0
912.93  0       0
912.9   0       0
912.87  0       0
912.84  0       0
912.81  0       0
912.78  0       0
912.75  0       0
912.72  0       0
912.69  0       0
912.66  0       0
912.63  0       0
912.6   0       0
912.57  0       0
912.54  0       0
912.51  0       0
912.48  0       0
912.45  0       0
912.42  0       0
912.39  0       0
912.36  0       0
912.33  0       0
912.3   0       0
912.27  0       0
912.24  0       0
912.21  0       0
912.18  0       0
912.15  0       0
912.12  0       0
912.09  0       0
912.06  0       0
912.03  0       0
912     0       0
911.97  0       0
911.94  0       0
911.91  0       0
911.88  0       0
911.85  0       0
911.82  0       0
911.79  0       0
911.76  0       0
911.73  0       0
911.7   0       0
911.67  0       0
911.64  0       0
911.61  0       0
911.58  0       0
911.55  0       0
911.52  0       0
911.49  0       0
911.46  0       0
911.43  0       0
911.4   0       0
911.37  0       0
911.34  0       0
911.31  0       0
911.28  0       0
911.25  0       0
911.22  0       0
911.19  0       0
911.16  0       0
911.13  0       0
911.1   0       0
911.07  0       0
911.04  0       0
911.01  0       0
910.98  0       0
910.95  0       0
910.92  0       0
910.89  0       0
910.86  0       0
910.83  0       0
910.8   0       0
910.77  0       0
910.74  0       0
910.71  0       0
910.68  0       0
910.65  0       0
910.62  0       0
910.59  0       0
910.56  0       0
910.53  0       0
910.5   0       0
910.47  0       0
910.44  0       0
910.41  0       0
910.38  0       0
910.35  0       0
910.32  0       0
910.29  0       0
910.26  0       0
910.23  0       0
910.2   0       0
910.17  0       0
910.14  0       0
910.11  0       0
910.08  0       0
910.05  0       0
910.02  0       0
909.99  0       0
909.96  0       0
909.93  0       0
909.9   0       0
909.87  0       0
909.84  0       0
909.81  0       0
909.78  0       0
909.75  0       0
909.72  0       0
909.69  0       0
909.66  0       0
909.63  0       0
909.6   0       0
909.57  0       0
909.54  0       0
909.51  0       0
909.48  0       0
909.45  0       0
909.42  0       0
909.39  0       0
909.36  0       0
909.33  0       0
909.3   0       0
909.27  0       0
909.24  0       0
909.21  0       0
909.18  0       0
909.15  0       0
909.12  0       0
909.09  0       0
909.06  0       0
909.03  0       0
909     0       0
908.97  0       0
908.94  0       0
908.91  0       0
908.88  0       0
908.85  0       0
908.82  0       0
908.79  0       0
908.76  0       0
908.73  0       0
908.7   0       0
908.67  0       0
908.64  0       0
908.61  0       0
908.58  0       0
908.55  0       0
908.52  0       0
908.49  0       0
908.46  0       0
908.43  0       0
908.4   0       0
908.37  0       0
908.34  0       0
908.31  0       0
908.28  0       0
908.25  0       0
908.22  0       0
908.19  0       0
908.16  0       0
908.13  0       0
908.1   0       0
908.07  0       0
908.04  0       0
908.01  0       0
907.98  0       0
907.95  0       0
907.92  0       0
907.89  0       0
907.86  0       0
907.83  0       0
907.8   0       0
907.77  0       0
907.74  0       0
907.71  0       0
907.68  0       0
907.65  0       0
907.62  0       0
907.59  0       0
907.56  0       0
907.53  0       0
907.5   0       0
907.47  0       0
907.44  0       0
907.41  0       0
907.38  0       0
907.35  0       0
907.32  0       0
907.29  0       0
907.26  0       0
907.23  0       0
907.2   0       0
907.17  0       0
907.14  0       0
907.11  0       0
907.08  0       0
907.05  0       0
907.02  0       0
906.99  0       0
906.96  0       0
906.93  0       0
906.9   0       0
906.87  0       0
906.84  0       0
906.81  0       0
906.78  0       0
906.75  0       0
906.72  0       0
906.69  0       0
906.66  0       0
906.63  0       0
906.6   0       0
906.57  0       0
906.54  0       0
906.51  0       0
906.48  0       0
906.45  0       0
906.42  0       0
906.39  0       0
906.36  0       0
906.33  0       0
906.3   0       0
906.27  0       0
906.24  0       0
906.21  0       0
906.18  0       0
906.15  0       0
906.12  0       0
906.09  0       0
906.06  0       0
906.03  0       0
906     0       0
905.97  0       0
905.94  0       0
905.91  0       0
905.88  0       0
905.85  0       0
905.82  0       0
905.79  0       0
905.76  0       0
905.73  0       0
905.7   0       0
905.67  0       0
905.64  0       0
905.61  0       0
905.58  0       0
905.55  0       0
905.52  0       0
905.49  0       0
905.46  0       0
905.43  0       0
905.4   0       0
905.37  0       0
905.34  0       0
905.31  0       0
905.28  0       0
905.25  0       0
905.22  0       0
905.19  0       0
905.16  0       0
905.13  0       0
905.1   0       0
905.07  0       0
905.04  0       0
905.01  0       0
904.98  0       0
904.95  0       0
904.92  0       0
904.89  0       0
904.86  0       0
904.83  0       0
904.8   0       0
904.77  0       0
904.74  0       0
904.71  0       0
904.68  0       0
904.65  0       0
904.62  0       0
904.59  0       0
904.56  0       0
904.53  0       0
904.5   0       0
904.47  0       0
904.44  0       0
904.41  0       0
904.38  0       0
904.35  0       0
904.32  0       0
904.29  0       0
904.26  0       0
904.23  0       0
904.2   0       0
904.17  0       0
904.14  0       0
904.11  0       0
904.08  0       0
904.05  0       0
904.02  0       0
903.99  0       0
903.96  0       0
903.93  0       0
903.9   0       0
903.87  0       0
903.84  0       0
903.81  0       0
903.78  0       0
903.75  0       0
903.72  0       0
903.69  0       0
903.66  0       0
903.63  0       0
903.6   0       0
903.57  0       0
903.54  0       0
903.51  0       0
903.48  0       0
903.45  0       0
903.42  0       0
903.39  0       0
903.36  0       0
903.33  0       0
903.3   0       0
903.27  0       0
903.24  0       0
903.21  0       0
903.18  0       0
903.15  0       0
903.12  0       0
903.09  0       0
903.06  0       0
903.03  0       0
903     0       0
902.97  0       0
902.94  0       0
902.91  0       0
902.88  0       0
902.85  0       0
902.82  0       0
902.79  0       0
902.76  0       0
902.73  0       0
902.7   0       0
902.67  0       0
902.64  0       0
902.61  0       0
902.58  0       0
902.55  0       0
902.52  0       0
902.49  0       0
902.46  0       0
902.43  0       0
902.4   0       0
902.37  0       0
902.34  0       0
902.31  0       0
902.28  0       0
902.25  0       0
902.22  0       0
902.19  0       0
902.16  0       0
902.13  0       0
902.1   0       0
902.07  0       0
902.04  0       0
902.01  0       0
901.98  0       0
901.95  0       0
901.92  0       0
901.89  0       0
901.86  0       0
901.83  0       0
901.8   0       0
901.77  0       0
901.74  0       0
901.71  0       0
901.68  0       0
901.65  0       0
901.62  0       0
901.59  0       0
901.56  0       0
901.53  0       0
901.5   0       0
901.47  0       0
901.44  0       0
901.41  0       0
901.38  0       0
901.35  0       0
901.32  0       0
901.29  0       0
901.26  0       0
901.23  0       0
901.2   0       0
901.17  0       0
901.14  0       0
901.11  0       0
901.08  0       0
901.05  0       0
901.02  0       0
900.99  0       0
900.96  0       0
900.93  0       0
900.9   0       0
900.87  0       0
900.84  0       0
900.81  0       0
900.78  0       0
900.75  0       0
900.72  0       0
900.69  0       0
900.66  0       0
900.63  0       0
900.6   0       0
900.57  0       0
900.54  0       0
900.51  0       0
900.48  0       0
900.45  0       0
900.42  0       0
900.39  0       0
900.36  0       0
900.33  0       0
900.3   0       0
900.27  0       0
900.24  0       0
900.21  0       0
900.18  0       0
900.15  0       0
900.12  0       0
900.09  0       0
900.06  0       0
900.03  0       0
900     0       0
899.97  0       0
899.94  0       0
899.91  0       0
899.88  0       0
899.85  0       0
899.82  0       0
899.79  0       0
899.76  0       0
899.73  0       0
899.7   0       0
899.67  0       0
899.64  0       0
899.61  0       0
899.58  0       0
899.55  0       0
899.52  0       0
899.49  0       0
899.46  0       0
899.43  0       0
899.4   0       0
899.37  0       0
899.34  0       0
899.31  0       0
899.28  0       0
899.25  0       0
899.22  0       0
899.19  0       0
899.16  0       0
899.13  0       0
899.1   0       0
899.07  0       0
899.04  0       0
899.01  0       0
898.98  0       0
898.95  0       0
898.92  0       0
898.89  0       0
898.86  0       0
898.83  0       0
898.8   0       0
898.77  0       0
898.74  0       0
898.71  0       0
898.68  0       0
898.65  0       0
898.62  0       0
898.59  0       0
898.56  0       0
898.53  0       0
898.5   0       0
898.47  0       0
898.44  0       0
898.41  0       0
898.38  0       0
898.35  0       0
898.32  0       0
898.29  0       0
898.26  0       0
898.23  0       0
898.2   0       0
898.17  0       0
898.14  0       0
898.11  0       0
898.08  0       0
898.05  0       0
898.02  0       0
897.99  0       0
897.96  0       0
897.93  0       0
897.9   0       0
897.87  0       0
897.84  0       0
897.81  0       0
897.78  0       0
897.75  0       0
897.72  0       0
897.69  0       0
897.66  0       0
897.63  0       0
897.6   0       0
897.57  0       0
897.54  0       0
897.51  0       0
897.48  0       0
897.45  0       0
897.42  0       0
897.39  0       0
897.36  0       0
897.33  0       0
897.3   0       0
897.27  0       0
897.24  0       0
897.21  0       0
897.18  0       0
897.15  0       0
897.12  0       0
897.09  0       0
897.06  0       0
897.03  0       0
897     0       0
896.97  0       0
896.94  0       0
896.91  0       0
896.88  0       0
896.85  0       0
896.82  0       0
896.79  0       0
896.76  0       0
896.73  0       0
896.7   0       0
896.67  0       0
896.64  0       0
896.61  0       0
896.58  0       0
896.55  0       0
896.52  0       0
896.49  0       0
896.46  0       0
896.43  0       0
896.4   0       0
896.37  0       0
896.34  0       0
896.31  0       0
896.28  0       0
896.25  0       0
896.22  0       0
896.19  0       0
896.16  0       0
896.13  0       0
896.1   0       0
896.07  0       0
896.04  0       0
896.01  0       0
895.98  0       0
895.95  0       0
895.92  0       0
895.89  0       0
895.86  0       0
895.83  0       0
895.8   0       0
895.77  0       0
895.74  0       0
895.71  0       0
895.68  0       0
895.65  0       0
895.62  0       0
895.59  0       0
895.56  0       0
895.53  0       0
895.5   0       0
895.47  0       0
895.44  0       0
895.41  0       0
895.38  0       0
895.35  0       0
895.32  0       0
895.29  0       0
895.26  0       0
895.23  0       0
895.2   0       0
895.17  0       0
895.14  0       0
895.11  0       0
895.08  0       0
895.05  0       0
895.02  0       0
894.99  0       0
894.96  0       0
894.93  0       0
894.9   0       0
894.87  0       0
894.84  0       0
894.81  0       0
894.78  0       0
894.75  0       0
894.72  0       0
894.69  0       0
894.66  0       0
894.63  0       0
894.6   0       0
894.57  0       0
894.54  0       0
894.51  0       0
894.48  0       0
894.45  0       0
894.42  0       0
894.39  0       0
894.36  0       0
894.33  0       0
894.3   0       0
894.27  0       0
894.24  0       0
894.21  0       0
894.18  0       0
894.15  0       0
894.12  0       0
894.09  0       0
894.06  0       0
894.03  0       0
894     0       0
893.97  0       0
893.94  0       0
893.91  0       0
893.88  0       0
893.85  0       0
893.82  0       0
893.79  0       0
893.76  0       0
893.73  0       0
893.7   0       0
893.67  0       0
893.64  0       0
893.61  0       0
893.58  0       0
893.55  0       0
893.52  0       0
893.49  0       0
893.46  0       0
893.43  0       0
893.4   0       0
893.37  0       0
893.34  0       0
893.31  0       0
893.28  0       0
893.25  0       0
893.22  0       0
893.19  0       0
893.16  0       0
893.13  0       0
893.1   0       0
893.07  0       0
893.04  0       0
893.01  0       0
892.98  0       0
892.95  0       0
892.92  0       0
892.89  0       0
892.86  0       0
892.83  0       0
892.8   0       0
892.77  0       0
892.74  0       0
892.71  0       0
892.68  0       0
892.65  0       0
892.62  0       0
892.59  0       0
892.56  0       0
892.53  0       0
892.5   0       0
892.47  0       0
892.44  0       0
892.41  0       0
892.38  0       0
892.35  0       0
892.32  0       0
892.29  0       0
892.26  0       0
892.23  0       0
892.2   0       0
892.17  0       0
892.14  0       0
892.11  0       0
892.08  0       0
892.05  0       0
892.02  0       0
891.99  0       0
891.96  0       0
891.93  0       0
891.9   0       0
891.87  0       0
891.84  0       0
891.81  0       0
891.78  0       0
891.75  0       0
891.72  0       0
891.69  0       0
891.66  0       0
891.63  0       0
891.6   0       0
891.57  0       0
891.54  0       0
891.51  0       0
891.48  0       0
891.45  0       0
891.42  0       0
891.39  0       0
891.36  0       0
891.33  0       0
891.3   0       0
891.27  0       0
891.24  0       0
891.21  0       0
891.18  0       0
891.15  0       0
891.12  0       0
891.09  0       0
891.06  0       0
891.03  0       0
891     0       0
890.97  0       0
890.94  0       0
890.91  0       0
890.88  0       0
890.85  0       0
890.82  0       0
890.79  0       0
890.76  0       0
890.73  0       0
890.7   0       0
890.67  0       0
890.64  0       0
890.61  0       0
890.58  0       0
890.55  0       0
890.52  0       0
890.49  0       0
890.46  0       0
890.43  0       0
890.4   0       0
890.37  0       0
890.34  0       0
890.31  0       0
890.28  0       0
890.25  0       0
890.22  0       0
890.19  0       0
890.16  0       0
890.13  0       0
890.1   0       0
890.07  0       0
890.04  0       0
890.01  0       0
889.98  0       0
889.95  0       0
889.92  0       0
889.89  0       0
889.86  0       0
889.83  0       0
889.8   0       0
889.77  0       0
889.74  0       0
889.71  0       0
889.68  0       0
889.65  0       0
889.62  0       0
889.59  0       0
889.56  0       0
889.53  0       0
889.5   0       0
889.47  0       0
889.44  0       0
889.41  0       0
889.38  0       0
889.35  0       0
889.32  0       0
889.29  0       0
889.26  0       0
889.23  0       0
889.2   0       0
889.17  0       0
889.14  0       0
889.11  0       0
889.08  0       0
889.05  0       0
889.02  0       0
888.99  0       0
888.96  0       0
888.93  0       0
888.9   0       0
888.87  0       0
888.84  0       0
888.81  0       0
888.78  0       0
888.75  0       0
888.72  0       0
888.69  0       0
888.66  0       0
888.63  0       0
888.6   0       0
888.57  0       0
888.54  0       0
888.51  0       0
888.48  0       0
888.45  0       0
888.42  0       0
888.39  0       0
888.36  0       0
888.33  0       0
888.3   0       0
888.27  0       0
888.24  0       0
888.21  0       0
888.18  0       0
888.15  0       0
888.12  0       0
888.09  0       0
888.06  0       0
888.03  0       0
888     0       0
887.97  0       0
887.94  0       0
887.91  0       0
887.88  0       0
887.85  0       0
887.82  0       0
887.79  0       0
887.76  0       0
887.73  0       0
887.7   0       0
887.67  0       0
887.64  0       0
887.61  0       0
887.58  0       0
887.55  0       0
887.52  0       0
887.49  0       0
887.46  0       0
887.43  0       0
887.4   0       0
887.37  0       0
887.34  0       0
887.31  0       0
887.28  0       0
887.25  0       0
887.22  0       0
887.19  0       0
887.16  0       0
887.13  0       0
887.1   0       0
887.07  0       0
887.04  0       0
887.01  0       0
886.98  0       0
886.95  0       0
886.92  0       0
886.89  0       0
886.86  0       0
886.83  0       0
886.8   0       0
886.77  0       0
886.74  0       0
886.71  0       0
886.68  0       0
886.65  0       0
886.62  0       0
886.59  0       0
886.56  0       0
886.53  0       0
886.5   0       0
886.47  0       0
886.44  0       0
886.41  0       0
886.38  0       0
886.35  0       0
886.32  0       0
886.29  0       0
886.26  0       0
886.23  0       0
886.2   0       0
886.17  0       0
886.14  0       0
886.11  0       0
886.08  0       0
886.05  0       0
886.02  0       0
885.99  0       0
885.96  0       0
885.93  0       0
885.9   0       0
885.87  0       0
885.84  0       0
885.81  0       0
885.78  0       0
885.75  0       0
885.72  0       0
885.69  0       0
885.66  0       0
885.63  0       0
885.6   0       0
885.57  0       0
885.54  0       0
885.51  0       0
885.48  0       0
885.45  0       0
885.42  0       0
885.39  0       0
885.36  0       0
885.33  0       0
885.3   0       0
885.27  0       0
885.24  0       0
885.21  0       0
885.18  0       0
885.15  0       0
885.12  0       0
885.09  0       0
885.06  0       0
885.03  0       0
885     0       0
884.97  0       0
884.94  0       0
884.91  0       0
884.88  0       0
884.85  0       0
884.82  0       0
884.79  0       0
884.76  0       0
884.73  0       0
884.7   0       0
884.67  0       0
884.64  0       0
884.61  0       0
884.58  0       0
884.55  0       0
884.52  0       0
884.49  0       0
884.46  0       0
884.43  0       0
884.4   0       0
884.37  0       0
884.34  0       0
884.31  0       0
884.28  0       0
884.25  0       0
884.22  0       0
884.19  0       0
884.16  0       0
884.13  0       0
884.1   0       0
884.07  0       0
884.04  0       0
884.01  0       0
883.98  0       0
883.95  0       0
883.92  0       0
883.89  0       0
883.86  0       0
883.83  0       0
883.8   0       0
883.77  0       0
883.74  0       0
883.71  0       0
883.68  0       0
883.65  0       0
883.62  0       0
883.59  0       0
883.56  0       0
883.53  0       0
883.5   0       0
883.47  0       0
883.44  0       0
883.41  0       0
883.38  0       0
883.35  0       0
883.32  0       0
883.29  0       0
883.26  0       0
883.23  0       0
883.2   0       0
883.17  0       0
883.14  0       0
883.11  0       0
883.08  0       0
883.05  0       0
883.02  0       0
882.99  0       0
882.96  0       0
882.93  0       0
882.9   0       0
882.87  0       0
882.84  0       0
882.81  0       0
882.78  0       0
882.75  0       0
882.72  0       0
882.69  0       0
882.66  0       0
882.63  0       0
882.6   0       0
882.57  0       0
882.54  0       0
882.51  0       0
882.48  0       0
882.45  0       0
882.42  0       0
882.39  0       0
882.36  0       0
882.33  0       0
882.3   0       0
882.27  0       0
882.24  0       0
882.21  0       0
882.18  0       0
882.15  0       0
882.12  0       0
882.09  0       0
882.06  0       0
882.03  0       0
882     0       0
881.97  0       0
881.94  0       0
881.91  0       0
881.88  0       0
881.85  0       0
881.82  0       0
881.79  0       0
881.76  0       0
881.73  0       0
881.7   0       0
881.67  0       0
881.64  0       0
881.61  0       0
881.58  0       0
881.55  0       0
881.52  0       0
881.49  0       0
881.46  0       0
881.43  0       0
881.4   0       0
881.37  0       0
881.34  0       0
881.31  0       0
881.28  0       0
881.25  0       0
881.22  0       0
881.19  0       0
881.16  0       0
881.13  0       0
881.1   0       0
881.07  0       0
881.04  0       0
881.01  0       0
880.98  0       0
880.95  0       0
880.92  0       0
880.89  0       0
880.86  0       0
880.83  0       0
880.8   0       0
880.77  0       0
880.74  0       0
880.71  0       0
880.68  0       0
880.65  0       0
880.62  0       0
880.59  0       0
880.56  0       0
880.53  0       0
880.5   0       0
880.47  0       0
880.44  0       0
880.41  0       0
880.38  0       0
880.35  0       0
880.32  0       0
880.29  0       0
880.26  0       0
880.23  0       0
880.2   0       0
880.17  0       0
880.14  0       0
880.11  0       0
880.08  0       0
880.05  0       0
880.02  0       0
879.99  0       0
879.96  0       0
879.93  0       0
879.9   0       0
879.87  0       0
879.84  0       0
879.81  0       0
879.78  0       0
879.75  0       0
879.72  0       0
879.69  0       0
879.66  0       0
879.63  0       0
879.6   0       0
879.57  0       0
879.54  0       0
879.51  0       0
879.48  0       0
879.45  0       0
879.42  0       0
879.39  0       0
879.36  0       0
879.33  0       0
879.3   0       0
879.27  0       0
879.24  0       0
879.21  0       0
879.18  0       0
879.15  0       0
879.12  0       0
879.09  0       0
879.06  0       0
879.03  0       0
879     0       0
878.97  0       0
878.94  0       0
878.91  0       0
878.88  0       0
878.85  0       0
878.82  0       0
878.79  0       0
878.76  0       0
878.73  0       0
878.7   0       0
878.67  0       0
878.64  0       0
878.61  0       0
878.58  0       0
878.55  0       0
878.52  0       0
878.49  0       0
878.46  0       0
878.43  0       0
878.4   0       0
878.37  0       0
878.34  0       0
878.31  0       0
878.28  0       0
878.25  0       0
878.22  0       0
878.19  0       0
878.16  0       0
878.13  0       0
878.1   0       0
878.07  0       0
878.04  0       0
878.01  0       0
877.98  0       0
877.95  0       0
877.92  0       0
877.89  0       0
877.86  0       0
877.83  0       0
877.8   0       0
877.77  0       0
877.74  0       0
877.71  0       0
877.68  0       0
877.65  0       0
877.62  0       0
877.59  0       0
877.56  0       0
877.53  0       0
877.5   0       0
877.47  0       0
877.44  0       0
877.41  0       0
877.38  0       0
877.35  0       0
877.32  0       0
877.29  0       0
877.26  0       0
877.23  0       0
877.2   0       0
877.17  0       0
877.14  0       0
877.11  0       0
877.08  0       0
877.05  0       0
877.02  0       0
876.99  0       0
876.96  0       0
876.93  0       0
876.9   0       0
876.87  0       0
876.84  0       0
876.81  0       0
876.78  0       0
876.75  0       0
876.72  0       0
876.69  0       0
876.66  0       0
876.63  0       0
876.6   0       0
876.57  0       0
876.54  0       0
876.51  0       0
876.48  0       0
876.45  0       0
876.42  0       0
876.39  0       0
876.36  0       0
876.33  0       0
876.3   0       0
876.27  0       0
876.24  0       0
876.21  0       0
876.18  0       0
876.15  0       0
876.12  0       0
876.09  0       0
876.06  0       0
876.03  0       0
876     0       0
875.97  0       0
875.94  0       0
875.91  0       0
875.88  0       0
875.85  0       0
875.82  0       0
875.79  0       0
875.76  0       0
875.73  0       0
875.7   0       0
875.67  0       0
875.64  0       0
875.61  0       0
875.58  0       0
875.55  0       0
875.52  0       0
875.49  0       0
875.46  0       0
875.43  0       0
875.4   0       0
875.37  0       0
875.34  0       0
875.31  0       0
875.28  0       0
875.25  0       0
875.22  0       0
875.19  0       0
875.16  0       0
875.13  0       0
875.1   0       0
875.07  0       0
875.04  0       0
875.01  0       0
874.98  0       0
874.95  0       0
874.92  0       0
874.89  0       0
874.86  0       0
874.83  0       0
874.8   0       0
874.77  0       0
874.74  0       0
874.71  0       0
874.68  0       0
874.65  0       0
874.62  0       0
874.59  0       0
874.56  0       0
874.53  0       0
874.5   0       0
874.47  0       0
874.44  0       0
874.41  0       0
874.38  0       0
874.35  0       0
874.32  0       0
874.29  0       0
874.26  0       0
874.23  0       0
874.2   0       0
874.17  0       0
874.14  0       0
874.11  0       0
874.08  0       0
874.05  0       0
874.02  0       0
873.99  0       0
873.96  0       0
873.93  0       0
873.9   0       0
873.87  0       0
873.84  0       0
873.81  0       0
873.78  0       0
873.75  0       0
873.72  0       0
873.69  0       0
873.66  0       0
873.63  0       0
873.6   0       0
873.57  0       0
873.54  0       0
873.51  0       0
873.48  0       0
873.45  0       0
873.42  0       0
873.39  0       0
873.36  0       0
873.33  0       0
873.3   0       0
873.27  0       0
873.24  0       0
873.21  0       0
873.18  0       0
873.15  0       0
873.12  0       0
873.09  0       0
873.06  0       0
873.03  0       0
873     0       0
872.97  0       0
872.94  0       0
872.91  0       0
872.88  0       0
872.85  0       0
872.82  0       0
872.79  0       0
872.76  0       0
872.73  0       0
872.7   0       0
872.67  0       0
872.64  0       0
872.61  0       0
872.58  0       0
872.55  0       0
872.52  0       0
872.49  0       0
872.46  0       0
872.43  0       0
872.4   0       0
872.37  0       0
872.34  0       0
872.31  0       0
872.28  0       0
872.25  0       0
872.22  0       0
872.19  0       0
872.16  0       0
872.13  0       0
872.1   0       0
872.07  0       0
872.04  0       0
872.01  0       0
871.98  0       0
871.95  0       0
871.92  0       0
871.89  0       0
871.86  0       0
871.83  0       0
871.8   0       0
871.77  0       0
871.74  0       0
871.71  0       0
871.68  0       0
871.65  0       0
871.62  0       0
871.59  0       0
871.56  0       0
871.53  0       0
871.5   0       0
871.47  0       0
871.44  0       0
871.41  0       0
871.38  0       0
871.35  0       0
871.32  0       0
871.29  0       0
871.26  0       0
871.23  0       0
871.2   0       0
871.17  0       0
871.14  0       0
871.11  0       0
871.08  0       0
871.05  0       0
871.02  0       0
870.99  0       0
870.96  0       0
870.93  0       0
870.9   0       0
870.87  0       0
870.84  0       0
870.81  0       0
870.78  0       0
870.75  0       0
870.72  0       0
870.69  0       0
870.66  0       0
870.63  0       0
870.6   0       0
870.57  0       0
870.54  0       0
870.51  0       0
870.48  0       0
870.45  0       0
870.42  0       0
870.39  0       0
870.36  0       0
870.33  0       0
870.3   0       0
870.27  0       0
870.24  0       0
870.21  0       0
870.18  0       0
870.15  0       0
870.12  0       0
870.09  0       0
870.06  0       0
870.03  0       0
870     0       0
869.97  0       0
869.94  0       0
869.91  0       0
869.88  0       0
869.85  0       0
869.82  0       0
869.79  0       0
869.76  0       0
869.73  0       0
869.7   0       0
869.67  0       0
869.64  0       0
869.61  0       0
869.58  0       0
869.55  0       0
869.52  0       0
869.49  0       0
869.46  0       0
869.43  0       0
869.4   0       0
869.37  0       0
869.34  0       0
869.31  0       0
869.28  0       0
869.25  0       0
869.22  0       0
869.19  0       0
869.16  0       0
869.13  0       0
869.1   0       0
869.07  0       0
869.04  0       0
869.01  0       0
868.98  0       0
868.95  0       0
868.92  0       0
868.89  0       0
868.86  0       0
868.83  0       0
868.8   0       0
868.77  0       0
868.74  0       0
868.71  0       0
868.68  0       0
868.65  0       0
868.62  0       0
868.59  0       0
868.56  0       0
868.53  0       0
868.5   0       0
868.47  0       0
868.44  0       0
868.41  0       0
868.38  0       0
868.35  0       0
868.32  0       0
868.29  0       0
868.26  0       0
868.23  0       0
868.2   0       0
868.17  0       0
868.14  0       0
868.11  0       0
868.08  0       0
868.05  0       0
868.02  0       0
867.99  0       0
867.96  0       0
867.93  0       0
867.9   0       0
867.87  0       0
867.84  0       0
867.81  0       0
867.78  0       0
867.75  0       0
867.72  0       0
867.69  0       0
867.66  0       0
867.63  0       0
867.6   0       0
867.57  0       0
867.54  0       0
867.51  0       0
867.48  0       0
867.45  0       0
867.42  0       0
867.39  0       0
867.36  0       0
867.33  0       0
867.3   0       0
867.27  0       0
867.24  0       0
867.21  0       0
867.18  0       0
867.15  0       0
867.12  0       0
867.09  0       0
867.06  0       0
867.03  0       0
867     0       0
866.97  0       0
866.94  0       0
866.91  0       0
866.88  0       0
866.85  0       0
866.82  0       0
866.79  0       0
866.76  0       0
866.73  0       0
866.7   0       0
866.67  0       0
866.64  0       0
866.61  0       0
866.58  0       0
866.55  0       0
866.52  0       0
866.49  0       0
866.46  0       0
866.43  0       0
866.4   0       0
866.37  0       0
866.34  0       0
866.31  0       0
866.28  0       0
866.25  0       0
866.22  0       0
866.19  0       0
866.16  0       0
866.13  0       0
866.1   0       0
866.07  0       0
866.04  0       0
866.01  0       0
865.98  0       0
865.95  0       0
865.92  0       0
865.89  0       0
865.86  0       0
865.83  0       0
865.8   0       0
865.77  0       0
865.74  0       0
865.71  0       0
865.68  0       0
865.65  0       0
865.62  0       0
865.59  0       0
865.56  0       0
865.53  0       0
865.5   0       0
865.47  0       0
865.44  0       0
865.41  0       0
865.38  0       0
865.35  0       0
865.32  0       0
865.29  0       0
865.26  0       0
865.23  0       0
865.2   0       0
865.17  0       0
865.14  0       0
865.11  0       0
865.08  0       0
865.05  0       0
865.02  0       0
864.99  0       0
864.96  0       0
864.93  0       0
864.9   0       0
864.87  0       0
864.84  0       0
864.81  0       0
864.78  0       0
864.75  0       0
864.72  0       0
864.69  0       0
864.66  0       0
864.63  0       0
864.6   0       0
864.57  0       0
864.54  0       0
864.51  0       0
864.48  0       0
864.45  0       0
864.42  0       0
864.39  0       0
864.36  0       0
864.33  0       0
864.3   0       0
864.27  0       0
864.24  0       0
864.21  0       0
864.18  0       0
864.15  0       0
864.12  0       0
864.09  0       0
864.06  0       0
864.03  0       0
864     0       0
863.97  0       0
863.94  0       0
863.91  0       0
863.88  0       0
863.85  0       0
863.82  0       0
863.79  0       0
863.76  0       0
863.73  0       0
863.7   0       0
863.67  0       0
863.64  0       0
863.61  0       0
863.58  0       0
863.55  0       0
863.52  0       0
863.49  0       0
863.46  0       0
863.43  0       0
863.4   0       0
863.37  0       0
863.34  0       0
863.31  0       0
863.28  0       0
863.25  0       0
863.22  0       0
863.19  0       0
863.16  0       0
863.13  0       0
863.1   0       0
863.07  0       0
863.04  0       0
863.01  0       0
862.98  0       0
862.95  0       0
862.92  0       0
862.89  0       0
862.86  0       0
862.83  0       0
862.8   0       0
862.77  0       0
862.74  0       0
862.71  0       0
862.68  0       0
862.65  0       0
862.62  0       0
862.59  0       0
862.56  0       0
862.53  0       0
862.5   0       0
862.47  0       0
862.44  0       0
862.41  0       0
862.38  0       0
862.35  0       0
862.32  0       0
862.29  0       0
862.26  0       0
862.23  0       0
862.2   0       0
862.17  0       0
862.14  0       0
862.11  0       0
862.08  0       0
862.05  0       0
862.02  0       0
861.99  0       0
861.96  0       0
861.93  0       0
861.9   0       0
861.87  0       0
861.84  0       0
861.81  0       0
861.78  0       0
861.75  0       0
861.72  0       0
861.69  0       0
861.66  0       0
861.63  0       0
861.6   0       0
861.57  0       0
861.54  0       0
861.51  0       0
861.48  0       0
861.45  0       0
861.42  0       0
861.39  0       0
861.36  0       0
861.33  0       0
861.3   0       0
861.27  0       0
861.24  0       0
861.21  0       0
861.18  0       0
861.15  0       0
861.12  0       0
861.09  0       0
861.06  0       0
861.03  0       0
861     0       0
860.97  0       0
860.94  0       0
860.91  0       0
860.88  0       0
860.85  0       0
860.82  0       0
860.79  0       0
860.76  0       0
860.73  0       0
860.7   0       0
860.67  0       0
860.64  0       0
860.61  0       0
860.58  0       0
860.55  0       0
860.52  0       0
860.49  0       0
860.46  0       0
860.43  0       0
860.4   0       0
860.37  0       0
860.34  0       0
860.31  0       0
860.28  0       0
860.25  0       0
860.22  0       0
860.19  0       0
860.16  0       0
860.13  0       0
860.1   0       0
860.07  0       0
860.04  0       0
860.01  0       0
859.98  0       0
859.95  0       0
859.92  0       0
859.89  0       0
859.86  0       0
859.83  0       0
859.8   0       0
859.77  0       0
859.74  0       0
859.71  0       0
859.68  0       0
859.65  0       0
859.62  0       0
859.59  0       0
859.56  0       0
859.53  0       0
859.5   0       0
859.47  0       0
859.44  0       0
859.41  0       0
859.38  0       0
859.35  0       0
859.32  0       0
859.29  0       0
859.26  0       0
859.23  0       0
859.2   0       0
859.17  0       0
859.14  0       0
859.11  0       0
859.08  0       0
859.05  0       0
859.02  0       0
858.99  0       0
858.96  0       0
858.93  0       0
858.9   0       0
858.87  0       0
858.84  0       0
858.81  0       0
858.78  0       0
858.75  0       0
858.72  0       0
858.69  0       0
858.66  0       0
858.63  0       0
858.6   0       0
858.57  0       0
858.54  0       0
858.51  0       0
858.48  0       0
858.45  0       0
858.42  0       0
858.39  0       0
858.36  0       0
858.33  0       0
858.3   0       0
858.27  0       0
858.24  0       0
858.21  0       0
858.18  0       0
858.15  0       0
858.12  0       0
858.09  0       0
858.06  0       0
858.03  0       0
858     0       0
857.97  0       0
857.94  0       0
857.91  0       0
857.88  0       0
857.85  0       0
857.82  0       0
857.79  0       0
857.76  0       0
857.73  0       0
857.7   0       0
857.67  0       0
857.64  0       0
857.61  0       0
857.58  0       0
857.55  0       0
857.52  0       0
857.49  0       0
857.46  0       0
857.43  0       0
857.4   0       0
857.37  0       0
857.34  0       0
857.31  0       0
857.28  0       0
857.25  0       0
857.22  0       0
857.19  0       0
857.16  0       0
857.13  0       0
857.1   0       0
857.07  0       0
857.04  0       0
857.01  0       0
856.98  0       0
856.95  0       0
856.92  0       0
856.89  0       0
856.86  0       0
856.83  0       0
856.8   0       0
856.77  0       0
856.74  0       0
856.71  0       0
856.68  0       0
856.65  0       0
856.62  0       0
856.59  0       0
856.56  0       0
856.53  0       0
856.5   0       0
856.47  0       0
856.44  0       0
856.41  0       0
856.38  0       0
856.35  0       0
856.32  0       0
856.29  0       0
856.26  0       0
856.23  0       0
856.2   0       0
856.17  0       0
856.14  0       0
856.11  0       0
856.08  0       0
856.05  0       0
856.02  0       0
855.99  0       0
855.96  0       0
855.93  0       0
855.9   0       0
855.87  0       0
855.84  0       0
855.81  0       0
855.78  0       0
855.75  0       0
855.72  0       0
855.69  0       0
855.66  0       0
855.63  0       0
855.6   0       0
855.57  0       0
855.54  0       0
855.51  0       0
855.48  0       0
855.45  0       0
855.42  0       0
855.39  0       0
855.36  0       0
855.33  0       0
855.3   0       0
855.27  0       0
855.24  0       0
855.21  0       0
855.18  0       0
855.15  0       0
855.12  0       0
855.09  0       0
855.06  0       0
855.03  0       0
855     0       0
854.97  0       0
854.94  0       0
854.91  0       0
854.88  0       0
854.85  0       0
854.82  0       0
854.79  0       0
854.76  0       0
854.73  0       0
854.7   0       0
854.67  0       0
854.64  0       0
854.61  0       0
854.58  0       0
854.55  0       0
854.52  0       0
854.49  0       0
854.46  0       0
854.43  0       0
854.4   0       0
854.37  0       0
854.34  0       0
854.31  0       0
854.28  0       0
854.25  0       0
854.22  0       0
854.19  0       0
854.16  0       0
854.13  0       0
854.1   0       0
854.07  0       0
854.04  0       0
854.01  0       0
853.98  0       0
853.95  0       0
853.92  0       0
853.89  0       0
853.86  0       0
853.83  0       0
853.8   0       0
853.77  0       0
853.74  0       0
853.71  0       0
853.68  0       0
853.65  0       0
853.62  0       0
853.59  0       0
853.56  0       0
853.53  0       0
853.5   0       0
853.47  0       0
853.44  0       0
853.41  0       0
853.38  0       0
853.35  0       0
853.32  0       0
853.29  0       0
853.26  0       0
853.23  0       0
853.2   0       0
853.17  0       0
853.14  0       0
853.11  0       0
853.08  0       0
853.05  0       0
853.02  0       0
852.99  0       0
852.96  0       0
852.93  0       0
852.9   0       0
852.87  0       0
852.84  0       0
852.81  0       0
852.78  0       0
852.75  0       0
852.72  0       0
852.69  0       0
852.66  0       0
852.63  0       0
852.6   0       0
852.57  0       0
852.54  0       0
852.51  0       0
852.48  0       0
852.45  0       0
852.42  0       0
852.39  0       0
852.36  0       0
852.33  0       0
852.3   0       0
852.27  0       0
852.24  0       0
852.21  0       0
852.18  0       0
852.15  0       0
852.12  0       0
852.09  0       0
852.06  0       0
852.03  0       0
852     0       0
851.97  0       0
851.94  0       0
851.91  0       0
851.88  0       0
851.85  0       0
851.82  0       0
851.79  0       0
851.76  0       0
851.73  0       0
851.7   0       0
851.67  0       0
851.64  0       0
851.61  0       0
851.58  0       0
851.55  0       0
851.52  0       0
851.49  0       0
851.46  0       0
851.43  0       0
851.4   0       0
851.37  0       0
851.34  0       0
851.31  0       0
851.28  0       0
851.25  0       0
851.22  0       0
851.19  0       0
851.16  0       0
851.13  0       0
851.1   0       0
851.07  0       0
851.04  0       0
851.01  0       0
850.98  0       0
850.95  0       0
850.92  0       0
850.89  0       0
850.86  0       0
850.83  0       0
850.8   0       0
850.77  0       0
850.74  0       0
850.71  0       0
850.68  0       0
850.65  0       0
850.62  0       0
850.59  0       0
850.56  0       0
850.53  0       0
850.5   0       0
850.47  0       0
850.44  0       0
850.41  0       0
850.38  0       0
850.35  0       0
850.32  0       0
850.29  0       0
850.26  0       0
850.23  0       0
850.2   0       0
850.17  0       0
850.14  0       0
850.11  0       0
850.08  0       0
850.05  0       0
850.02  0       0
849.99  0       0
849.96  0       0
849.93  0       0
849.9   0       0
849.87  0       0
849.84  0       0
849.81  0       0
849.78  0       0
849.75  0       0
849.72  0       0
849.69  0       0
849.66  0       0
849.63  0       0
849.6   0       0
849.57  0       0
849.54  0       0
849.51  0       0
849.48  0       0
849.45  0       0
849.42  0       0
849.39  0       0
849.36  0       0
849.33  0       0
849.3   0       0
849.27  0       0
849.24  0       0
849.21  0       0
849.18  0       0
849.15  0       0
849.12  0       0
849.09  0       0
849.06  0       0
849.03  0       0
849     0       0
848.97  0       0
848.94  0       0
848.91  0       0
848.88  0       0
848.85  0       0
848.82  0       0
848.79  0       0
848.76  0       0
848.73  0       0
848.7   0       0
848.67  0       0
848.64  0       0
848.61  0       0
848.58  0       0
848.55  0       0
848.52  0       0
848.49  0       0
848.46  0       0
848.43  0       0
848.4   0       0
848.37  0       0
848.34  0       0
848.31  0       0
848.28  0       0
848.25  0       0
848.22  0       0
848.19  0       0
848.16  0       0
848.13  0       0
848.1   0       0
848.07  0       0
848.04  0       0
848.01  0       0
847.98  0       0
847.95  0       0
847.92  0       0
847.89  0       0
847.86  0       0
847.83  0       0
847.8   0       0
847.77  0       0
847.74  0       0
847.71  0       0
847.68  0       0
847.65  0       0
847.62  0       0
847.59  0       0
847.56  0       0
847.53  0       0
847.5   0       0
847.47  0       0
847.44  0       0
847.41  0       0
847.38  0       0
847.35  0       0
847.32  0       0
847.29  0       0
847.26  0       0
847.23  0       0
847.2   0       0
847.17  0       0
847.14  0       0
847.11  0       0
847.08  0       0
847.05  0       0
847.02  0       0
846.99  0       0
846.96  0       0
846.93  0       0
846.9   0       0
846.87  0       0
846.84  0       0
846.81  0       0
846.78  0       0
846.75  0       0
846.72  0       0
846.69  0       0
846.66  0       0
846.63  0       0
846.6   0       0
846.57  0       0
846.54  0       0
846.51  0       0
846.48  0       0
846.45  0       0
846.42  0       0
846.39  0       0
846.36  0       0
846.33  0       0
846.3   0       0
846.27  0       0
846.24  0       0
846.21  0       0
846.18  0       0
846.15  0       0
846.12  0       0
846.09  0       0
846.06  0       0
846.03  0       0
846     0       0
845.97  0       0
845.94  0       0
845.91  0       0
845.88  0       0
845.85  0       0
845.82  0       0
845.79  0       0
845.76  0       0
845.73  0       0
845.7   0       0
845.67  0       0
845.64  0       0
845.61  0       0
845.58  0       0
845.55  0       0
845.52  0       0
845.49  0       0
845.46  0       0
845.43  0       0
845.4   0       0
845.37  0       0
845.34  0       0
845.31  0       0
845.28  0       0
845.25  0       0
845.22  0       0
845.19  0       0
845.16  0       0
845.13  0       0
845.1   0       0
845.07  0       0
845.04  0       0
845.01  0       0
825     0       0
789.36  0       0
775     0       0
770.41  0       0
765.15  0       0
725     0       0
703.36  0       0
675     0       0
629.73  0       0
625     0       0
609.76  0       0
584.33  0       0
575     0       0
554.37  0       0
525     0       0
475     0       0
465.22  0       0
425     0       0
375     0       0
368.07  0       0
325     0       0
303.78  0       0
303.31  0       0
284.15  0       0
275     0       0
256.3   0       0
225     0       0
175     0       0
125     0       0
75      0       0
41      0       0
27.5    0       0
19.5    0       0
